# k-axis, Phonon energy [meV], band-1, band-2, band-3, band-4, band-5, band-6, band-7
     1     0.000000   -6.094185    -1.925918    -1.925916     0.000000     0.000000     0.000000    56.137214    56.567660   172.092299   172.092423   172.119326   172.119450 
     2     0.015873   -5.948772    -0.780528     1.296596     1.802990     4.261984     4.700704    56.138578    56.568590   172.059072   172.086596   172.104821   172.132220 
     3     0.031746   -5.489967     2.592218     2.950358     3.603551     9.150698     9.396162    56.142644    56.571392   171.959392   171.988156   172.142139   172.170654 
     4     0.047619   -4.627184     3.885896     4.925585     5.400455    13.886206    14.082058    56.149339    56.575992   171.793631   171.824254   172.204005   172.234256 
     5     0.063492   -3.037786     5.176661     6.788601     7.193556    18.576965    18.754752    56.158576    56.582290   171.562036   171.595263   172.290047   172.322654 
     6     0.079365    2.524020     6.463544     8.613177     8.983141    23.239382    23.410709    56.170180    56.590150   171.265104   171.301306   172.399521   172.434979 
     7     0.095238    5.033635     7.745582    10.419485    10.769513    27.875998    28.046346    56.183955    56.599387   170.903702   170.943128   172.531436   172.570242 
     8     0.111111    6.900274     9.021823    12.215216    12.552863    32.485587    32.658006    56.199675    56.609814   170.478451   170.521224   172.684923   172.727324 
     9     0.126984    8.551661    10.291313    14.003814    14.333266    37.065619    37.241980    56.217070    56.621158   169.990218   170.036586   172.858619   172.904988 
    10     0.142857   10.090107    11.553111    15.786969    16.110693    41.613007    41.794538    56.235803    56.633159   169.439995   169.489959   173.050912   173.101620 
    11     0.158730   11.556975    12.806279    17.565499    17.885020    46.124416    46.311998    56.255553    56.645495   168.829145   168.882457   173.260438   173.315609 
    12     0.174603   12.972796    14.049910    19.339801    19.656050    50.596449    50.790663    56.275898    56.657806   168.158537   168.215444   173.485214   173.545220 
    13     0.190475   14.348974    15.283064    21.109988    21.423570    55.025647    55.226928    56.296442    56.669758   167.429907   167.490161   173.723256   173.788221 
    14     0.206348   15.692273    16.504850    22.876021    23.187273    56.316725    56.680928    59.408575    59.617196   166.644618   166.708095   173.972455   174.042752 
    15     0.222221   17.006820    17.714386    24.637740    24.946809    56.336276    56.690909    63.741837    63.957984   165.804281   165.870982   174.230706   174.306458 
    16     0.238094   18.295245    18.910793    26.394871    26.701833    56.354601    56.699265    68.022098    68.245857   164.910757   164.980310   174.495403   174.576858 
    17     0.253967   19.559110    20.093203    28.147080    28.451873    56.371140    56.705538    72.246060    72.477456   163.965906   164.038310   174.764192   174.851598 
    18     0.269840   20.799381    21.260785    29.893983    30.196470    56.385385    56.709270    76.410523    76.649519   162.971710   163.046718   175.034468   175.127949 
    19     0.285713   22.016530    22.412732    31.635059    31.935054    56.396766    56.709989    80.512376    80.758886   161.930650   162.008013   175.303505   175.403309 
    20     0.301586   23.210717    23.548228    33.369775    33.667017    56.404689    56.707212    84.548583    84.802456   160.844709   160.924304   175.568574   175.674701 
    21     0.317459   24.381845    24.666528    35.097473    35.391678    56.408594    56.700455    88.516215    88.777280   159.716615   159.798194   175.826700   175.939522 
    22     0.333332   25.529614    25.766937    36.817398    37.108243    56.407887    56.689247    92.412423    92.680480   158.548971   158.632286   176.075032   176.194673 
    23     0.349205   26.653506    26.848848    38.528707    38.815832    56.401986    56.673118    96.234491    96.509305   157.344630   157.429308   176.310718   176.437178 
    24     0.365078   27.752787    27.911791    40.230431    40.513441    56.390319    56.651620    99.979803   100.261101   156.106565   156.192484   176.530535   176.663937 
    25     0.380951   28.826404    28.955529    41.921432    42.199916    56.372293    56.624319   103.645867   103.933339   154.837878   154.924912   176.731506   176.872100 
    26     0.396824   29.872907    29.980199    43.600456    43.873993    56.347397    56.590783   107.230290   107.523639   153.542039   153.629817   176.910657   177.058566 
    27     0.412697   30.890658    30.986036    45.266040    45.534159    56.315088    56.550638   110.730815   111.029694   152.222520   152.310918   177.064889   177.220112 
    28     0.428570   31.878543    31.972694    46.916512    47.178766    56.274906    56.503525   114.145299   114.449347   150.883288   150.972058   177.191224   177.353762 
    29     0.444443   32.836797    32.938424    48.549948    48.805868    56.226430    56.449123   117.471719   117.780578   149.528311   149.617328   177.286441   177.456417 
    30     0.460316   33.766350    33.880734    50.164192    50.413268    56.169313    56.387183   120.708180   121.021440   148.162051   148.251069   177.347687   177.525102 
    31     0.476189   34.667833    34.797318    51.756740    51.998477    56.103256    56.317469   123.852896   124.170185   146.789097   146.877866   177.371863   177.556841 
    32     0.492062   35.541210    35.686416    53.324728    53.558641    56.028124    56.239832   126.904192   127.225053   145.414282   145.502928   177.356118   177.548535 
    33     0.507935   36.386035    36.546576    54.864931    55.090501    55.943855    56.154212   129.860495   130.184579   144.043311   144.131461   177.297723   177.497455 
    34     0.523808   37.201550    37.376499    55.850535    56.060632    56.373656    56.590349   132.720466   133.047153   142.681639   142.769417   177.193828   177.400874 
    35     0.539680   37.986765    38.174880    55.748425    55.959241    57.846688    58.053995   135.482492   135.811411   141.335588   141.422870   177.041828   177.256066 
    36     0.555553   38.740502    38.940370    55.637984    55.850349    59.279301    59.476665   138.145211   138.475990   140.012102   140.098640   176.839369   177.060673 
    37     0.571426   39.461383    39.671480    55.519868    55.734453    60.666142    60.853029   138.718123   138.804165   140.707506   141.039524   176.584094   176.812217 
    38     0.587299   40.147836    40.366549    55.394995    55.612295    62.001195    62.177061   137.461585   137.547131   143.167765   143.500651   176.274144   176.508962 
    39     0.603172   40.797987    41.023717    55.264569    55.484881    63.277805    63.442091   136.251044   136.335971   145.524501   145.857635   175.907907   176.149048 
    40     0.619045   41.409742    41.640815    55.130149    55.353574    64.488606    64.640742   135.095427   135.179857   147.775977   148.108740   175.484392   175.731484 
    41     0.634918   41.980607    42.215401    54.993647    55.220097    65.625552    65.764968   134.004279   134.088337   149.919715   150.251486   175.003225   175.255896 
    42     0.650791   42.507733    42.744647    54.857418    55.086632    66.680002    66.806152   132.987643   133.071453   151.952616   152.282650   174.465276   174.722906 
    43     0.666664   42.987821    43.225342    54.724251    54.955809    67.642819    67.755157   132.056057   132.139620   153.870090   154.197645   173.873147   174.134869 
    44     0.682537   43.417176    43.653928    54.597358    54.830763    68.504591    68.602585   131.220184   131.303499   155.664949   155.988908   173.232295   173.496868 
    45     0.698410   43.791670    44.026538    54.480345    54.715040    69.255836    69.339038   130.490314   130.573504   157.325785   157.644785   172.552884   172.818698 
    46     0.714283   44.106926    44.339141    54.377095    54.612545    69.887402    69.955467   129.876489   129.959555   158.833382   159.145439   171.853389   172.117963 
    47     0.730156   44.358469    44.587746    54.291474    54.527247    70.390848    70.443601   129.387884   129.470950   160.154017   160.456280   171.167284   171.426898 
    48     0.746029   44.542121    44.768694    54.227129    54.462939    70.758808    70.796498   129.032061   129.115128   161.228923   161.517673   170.553459   170.803279 
    49     0.761902   44.654373    44.879037    54.187009    54.422744    70.985121    71.009285   128.815220   128.898287   161.961769   162.235765   170.105767   170.342445 
    50     0.777775   44.692893    44.916863    54.173098    54.408797    71.063811    71.081019   128.740832   128.823899   162.232789   162.499222   169.934427   170.164038 
    51     0.777775   44.692893    44.916863    54.173098    54.408797    71.063811    71.081019   128.740832   128.823899   162.232789   162.499222   169.934427   170.164038 
    52     0.786930   44.696389    44.920235    54.172243    54.407743    71.112386    71.129620   128.754098   128.837288   162.223739   162.490172   169.918557   170.148168 
    53     0.796085   44.706903    44.930402    54.169639    54.404581    71.257989    71.275296   128.793647   128.877210   162.196711   162.463144   169.871073   170.100436 
    54     0.805240   44.724421    44.947312    54.165287    54.399300    71.499787    71.517231   128.859481   128.943663   162.151830   162.418139   169.791974   170.021089 
    55     0.814395   44.748895    44.970968    54.159175    54.391873    71.836516    71.854146   128.951226   129.036276   162.089220   162.355281   169.681136   169.909879 
    56     0.823550   44.780299    45.001293    54.151278    54.382314    72.266380    72.284233   129.068635   129.154801   162.008757   162.274694   169.538807   169.767178 
    57     0.832705   44.818559    45.038277    54.141582    54.370574    72.787170    72.805309   129.211336   129.298742   161.910937   162.176502   169.365111   169.592738 
    58     0.841860   44.863638    45.081818    54.130052    54.356638    73.396259    73.414720   129.378585   129.467727   161.795760   162.060953   169.159924   169.386931 
    59     0.851015   44.915437    45.131869    54.116650    54.340484    74.090671    74.109491   129.570134   129.661012   161.663473   161.928418   168.923370   169.149757 
    60     0.860171   44.973869    45.188354    54.101339    54.322048    74.867121    74.886338   129.784992   129.877977   161.514449   161.779022   168.655821   168.881217 
    61     0.869326   45.038847    45.251163    54.084081    54.301318    75.722050    75.741700   130.022413   130.117754   161.349060   161.613137   168.357153   168.581681 
    62     0.878481   45.110259    45.320195    54.064802    54.278246    76.651726    76.671836   130.281779   130.379476   161.167553   161.431259   168.027738   168.251150 
    63     0.887636   45.187970    45.395339    54.043465    54.252768    77.652220    77.672825   130.561850   130.662274   160.970425   161.233634   167.667452   167.889873 
    64     0.896791   45.271880    45.476484    54.020008    54.224835    78.719539    78.740653   130.861758   130.965157   160.758171   161.020885   167.276916   167.498096 
    65     0.905946   45.361827    45.563493    53.994356    54.194398    79.849579    79.871226   131.180386   131.286761   160.531288   160.793381   166.856003   167.075944 
    66     0.915101   45.457676    45.656230    53.966461    54.161394    81.038238    81.060430   131.516496   131.626219   160.290147   160.551744   166.404964   166.623665 
    67     0.924256   45.559265    45.754534    53.936222    54.125750    82.281410    82.304148   131.868971   131.982041   160.035492   160.296594   165.924294   166.141755 
    68     0.933411   45.666446    45.858280    53.903566    54.087391    83.575005    83.598313   132.236324   132.352865   159.768067   160.028549   165.414116   165.630213 
    69     0.942566   45.779020    45.967284    53.868417    54.046267    84.915018    84.938884   132.617191   132.737575   159.488244   159.748230   164.874679   165.089536 
    70     0.951721   45.896838    46.081370    53.830690    54.002279    86.297482    86.321930   133.010331   133.134311   159.197139   159.456629   164.306355   164.519972 
    71     0.960876   46.019702    46.200391    53.790298    53.955352    87.718578    87.743572   133.413886   133.541834   158.895248   159.154366   163.709639   163.922017 
    72     0.970032   46.147426    46.324160    53.747128    53.905401    89.174512    89.200052   133.826492   133.958406   158.583438   158.842308   163.084780   163.296042 
    73     0.979187   46.279800    46.452479    53.701094    53.852350    90.661652    90.687737   134.246412   134.382418   158.262702   158.521572   162.432149   162.642667 
    74     0.988342   46.416649    46.585163    53.652097    53.796100    92.176464    92.203058   134.671787   134.811885   157.933783   158.192901   161.752367   161.962389 
    75     0.997497   46.557751    46.722024    53.600038    53.736552    93.715515    93.742605   135.101006   135.245195   157.597797   157.857411   161.045805   161.255827 
    76     1.006652   46.702906    46.862865    53.544792    53.673632    95.275469    95.303029   135.532084   135.680365   157.255364   157.516218   160.313331   160.523973 
    77     1.015807   46.851906    47.007476    53.486261    53.607229    96.853126    96.881121   135.963039   136.115410   156.907228   157.170314   159.555441   159.767943 
    78     1.024962   47.004513    47.155644    53.424333    53.537242    98.445352    98.473756   136.391762   136.548101   156.553885   156.820690   158.773499   158.989472 
    79     1.034117   47.160541    47.307197    53.358884    53.463561   100.049108   100.077859   136.816145   136.976327   156.194343   156.467595   157.969241   158.191413 
    80     1.043272   47.319744    47.461887    53.289815    53.386110   101.661418   101.690479   137.233958   137.397736   155.825255   156.109293   157.146634   157.379840 
    81     1.052427   47.481922    47.619515    53.217002    53.304755   103.279357   103.308666   137.642844   137.809969   155.434222   155.732146   156.322043   156.569631 
    82     1.061582   47.646841    47.779884    53.140332    53.219407   104.900024   104.929518   138.040324   138.210548   154.978471   155.224572   155.609530   155.806410 
    83     1.070737   47.814276    47.942756    53.059671    53.129955   106.520541   106.550135   138.423794   138.596746   154.358076   154.425521   155.169153   155.197668 
    84     1.079892   47.984004    48.107922    52.974906    53.036276   108.137947   108.167566   138.790651   138.965711   153.523938   153.561752   154.745141   154.827960 
    85     1.089048   48.155816    48.275171    52.885925    52.938282   109.749228   109.778773   139.138043   139.314838   152.595204   152.669964   154.383739   154.502512 
    86     1.098203   48.329487    48.444292    52.792593    52.835862   111.351199   111.380545   139.463242   139.640906   151.644277   151.736766   154.061143   154.194670 
    87     1.107358   48.504770    48.615038    52.694810    52.728892   112.940436   112.969448   139.763398   139.941061   150.676365   150.777905   153.765451   153.903937 
    88     1.116513   48.681466    48.787209    52.592465    52.617273   114.513123   114.541638   140.035534   140.212453   149.695064   149.801563   153.493563   153.631925 
    89     1.125668   48.859353    48.960570    52.485445    52.500906   116.064906   116.092740   140.277171   140.452231   148.703968   148.812946   153.245727   153.380369 
    90     1.134823   49.038181    49.134873    52.373615    52.379703   117.590616   117.617545   140.485705   140.657666   147.707416   147.817635   153.022935   153.151130 
    91     1.143978   49.217754    49.309896    52.253355    52.257111   119.083881   119.109632   140.659029   140.826898   146.710617   146.821331   152.826179   152.946067 
    92     1.153133   49.397810    49.485365    52.122171    52.135474   120.536567   120.560805   140.795531   140.957945   145.721133   145.831971   152.656574   152.766296 
    93     1.162288   49.578139    49.660970    51.985818    52.008953   121.937901   121.960217   140.894095   141.050062   144.748758   144.859844   152.514369   152.612561 
    94     1.171443   49.758443    49.836365    51.844283    51.877534   123.273116   123.293052   140.954474   141.102754   143.807625   143.919331   152.399439   152.484738 
    95     1.180598   49.938450    50.011052    51.697565    51.741367   124.521669   124.538654   140.977162   141.116268   142.917821   143.030891   152.310546   152.382082 
    96     1.189753   50.117712    50.184290    51.545788    51.600922   125.654350   125.667988   140.963152   141.090480   142.108108   142.224773   152.245828   152.303231 
    97     1.198909   50.295549    50.354626    51.389326    51.457316   126.631064   126.640735   140.913436   141.020679   141.420019   141.547098   152.202807   152.245704 
    98     1.208064   50.470374    50.518602    51.229478    51.313723   127.399368   127.405071   140.818344   140.853058   140.929926   141.093703   152.178383   152.206899 
    99     1.217219   50.636098    50.664849    51.071986    51.181250   127.900620   127.902975   140.591584   140.647003   140.744948   140.906370   152.168837   152.183342 
   100     1.226374   50.744382    50.746179    50.964669    51.107060   128.087953   128.088077   140.572863   140.593320   140.614521   140.805202   152.170200   152.171936 
   101     1.226374   50.744382    50.746179    50.964669    51.107060   128.087953   128.088077   140.572863   140.593320   140.614521   140.805202   152.170200   152.171936 
   102     1.244684   50.440978    50.505559    51.245806    51.336225   127.395029   127.395649   140.241713   140.326515   141.518955   141.626197   152.169209   152.195244 
   103     1.262994   50.047974    50.139558    51.585239    51.659441   125.774115   125.775106   139.855019   139.937218   143.195412   143.289389   152.170448   152.216817 
   104     1.281304   49.624210    49.734354    51.922130    51.988471   123.618710   123.622665   139.436587   139.516058   145.246289   145.333571   152.149868   152.211982 
   105     1.299614   49.172266    49.297758    52.252040    52.313522   121.160856   121.169969   139.005756   139.085227   147.438132   147.523554   152.089489   152.161646 
   106     1.317924   48.692166    48.830986    52.573186    52.631568   118.516821   118.532753   138.576413   138.658984   149.649563   149.742052   151.981255   152.052295 
   107     1.336235   48.183476    48.333963    52.884363    52.940997   115.747133   115.770949   138.157609   138.246379   151.571129   151.806939   151.997124   152.066181 
   108     1.354545   47.645712    47.806316    53.184630    53.240657   112.886245   112.918653   137.753310   137.851254   151.487815   151.610431   154.022586   154.067094 
   109     1.372855   47.078367    47.247526    53.473144    53.529630   109.955854   109.997337   137.362153   137.472247   151.171914   151.283991   156.059825   156.111897 
   110     1.391165   46.480957    46.657083    53.749211    53.807171   106.970985   107.021854   136.976823   137.102043   150.784848   150.889239   158.010526   158.064086 
   111     1.409475   45.853073    46.034518    54.012234    54.072662   103.942972   104.003400   136.583187   136.726756   150.344843   150.439316   159.861672   159.914983 
   112     1.427785   45.194318    45.379383    54.261731    54.325581   100.880902   100.950975   136.159671   136.324689   149.872851   149.954430   161.606938   161.659506 
   113     1.446095   44.504394    44.691294    54.497293    54.565495    97.792523    97.872242   135.676273   135.865219   149.397140   149.462725   163.242978   163.294182 
