# k-axis, Phonon energy [meV], band-1, band-2, band-3, band-4, band-5, band-6, band-7
     1     0.000000    0.000000     0.000000     0.000000    28.521450    29.689900    29.891454    34.772435    38.650120    39.231165    42.669763    43.547479    43.648820    43.984422    46.641102    47.560154    50.222823    51.003872    53.977792 
     2     0.012589    0.540800     0.623077     1.059170    28.528864    29.692863    29.894070    34.777555    38.648794    39.239583    42.636610    43.370646    43.704450    44.106145    46.639925    47.560551    50.243019    50.996569    53.981500 
     3     0.025177    1.082234     1.246885     2.117524    28.550883    29.701975    29.901918    34.792817    38.644926    39.264590    42.538815    43.104784    43.733982    44.343133    46.637185    47.561406    50.302294    50.974823    53.992534 
     4     0.037766    1.624929     1.872136     3.174244    28.586850    29.717882    29.914973    34.817837    38.638851    39.305528    42.380939    42.822866    43.758877    44.598048    46.635412    47.561827    50.396990    50.939018    54.010722 
     5     0.050355    2.169502     2.499501     4.228514    28.635586    29.741686    29.933223    34.852067    38.631114    39.361319    42.169627    42.535468    43.788124    44.846008    46.639342    47.560724    50.521552    50.889872    54.035778 
     6     0.062943    2.716551     3.129594     5.279522    28.695357    29.775000    29.956643    34.894679    38.622473    39.430512    41.912505    42.245825    43.822901    45.074293    46.656364    47.557129    50.669386    50.828428    54.067269 
     7     0.075532    3.266651     3.762950     6.326455    28.763844    29.819905    29.985121    34.944668    38.613906    39.511397    41.617383    41.955266    43.862475    45.270962    46.696484    47.550322    50.756172    50.833449    54.104723 
     8     0.088121    3.820351     4.400019     7.368505    28.838058    29.878932    30.018534    35.000806    38.606554    39.602026    41.291638    41.664446    43.905174    45.425007    46.769967    47.539908    50.675102    51.006860    54.147558 
     9     0.100709    4.378163     5.041145     8.404862    28.914628    29.954857    30.056682    35.061693    38.601756    39.700268    40.941965    41.373812    43.948430    45.531494    46.881438    47.525725    50.587956    51.183221    54.195117 
    10     0.113298    4.940566     5.686553     9.434722    28.990095    30.050210    30.099232    35.125778    38.600950    39.803791    40.574327    41.083910    43.988625    45.596273    47.025044    47.507785    50.498319    51.356793    54.246730 
    11     0.125887    5.507997     6.336352    10.457283    29.061458    30.145749    30.166814    35.191413    38.605611    39.909571    40.194068    40.795979    44.021145    45.633517    47.186441    47.486200    50.410987    51.522555    54.301665 
    12     0.138475    6.080850     6.990519    11.471742    29.126683    30.195664    30.305200    35.256887    38.617042    39.806159    40.010974    40.515065    44.040597    45.659317    47.348718    47.461131    50.332148    51.676141    54.359155 
    13     0.151064    6.659465     7.648903    12.477298    29.184768    30.248206    30.464502    35.320489    38.635751    39.415908    40.061608    40.286198    44.041651    45.687324    47.432727    47.495957    50.269402    51.813833    54.418417 
    14     0.163653    7.244141     8.311221    13.473155    29.235488    30.302386    30.642760    35.380569    38.656976    39.033404    39.874956    40.294851    44.020128    45.726973    47.401187    47.614308    50.231216    51.932494    54.478622 
    15     0.176241    7.835114     8.977066    14.458498    29.279042    30.357011    30.837223    35.435567    38.571951    38.772501    39.599125    40.392126    43.974218    45.783099    47.366658    47.693023    50.225290    52.029583    54.538839 
    16     0.188830    8.432570     9.645903    15.432534    29.315679    30.410620    31.044840    35.483907    38.225650    38.793156    39.314008    40.497670    43.904765    45.856197    47.329278    47.726287    50.256124    52.103091    54.598114 
    17     0.201419    9.036632    10.317091    16.394433    29.345496    30.461464    31.262388    35.523741    37.861211    38.857278    39.027677    40.603128    43.814631    45.943517    47.289146    47.714782    50.323098    52.151493    54.655343 
    18     0.214007    9.647362    10.989879    17.343364    29.368333    30.507523    31.486593    35.552356    37.511290    38.742361    38.938151    40.706167    43.707760    46.040134    47.246360    47.665376    50.420682    52.173822    54.709374 
    19     0.226596   10.264755    11.663423    18.278508    29.383905    30.546527    31.714220    35.564990    37.186859    38.459327    39.032785    40.805426    43.588380    46.139839    47.200959    47.589115    50.540621    52.169557    54.758978 
    20     0.239185   10.888736    12.336802    19.198985    29.391728    30.575985    31.941922    35.552840    36.901296    38.179740    39.139792    40.899663    43.460544    46.235093    47.152929    47.499180    50.674370    52.138636    54.802855 
    21     0.251773   11.519150    13.009023    20.103878    29.391294    30.593268    32.166351    35.501723    36.673222    37.904827    39.257845    40.987379    43.328109    46.316721    47.102184    47.410076    50.814530    52.081407    54.839726 
    22     0.264362   12.155767    13.679061    20.992244    29.382082    30.595760    32.383936    35.397381    36.521198    37.636038    39.385607    41.066627    43.194768    46.373702    47.048563    47.337349    50.955309    51.998601    54.868353 
    23     0.276951   12.798257    14.345813    21.863055    29.363659    30.581043    32.590933    35.240112    36.448930    37.375122    39.521663    41.134841    43.064341    46.395634    46.991829    47.295109    51.092381    51.891308    54.887570 
    24     0.289539   13.446214    15.008201    22.715157    29.335738    30.547159    32.783250    35.048514    36.441330    37.124336    39.664624    41.188722    42.940820    46.379269    46.931588    47.289667    51.222721    51.761030    54.896286 
    25     0.302128   14.099092    15.665109    23.547261    29.298222    30.492918    32.956314    34.844145    36.479416    36.886530    39.813177    41.224292    42.828544    46.332578    46.867292    47.315541    51.344209    51.609613    54.893558 
    26     0.314716   14.756273    16.315446    24.357731    29.251271    30.418208    33.104941    34.641723    36.550097    36.665386    39.966056    41.237347    42.731852    46.269274    46.798185    47.360918    51.439327    51.455531    54.878557 
    27     0.327305   15.416950    16.958133    25.144508    29.195282    30.324330    33.223268    34.449182    36.465506    36.645785    40.122135    41.224379    42.654315    46.201110    46.723301    47.415370    51.252910    51.555930    54.850575 
    28     0.339894   16.080206    17.592105    25.904555    29.130948    30.214447    33.304971    34.270142    36.292219    36.762029    40.280395    41.183912    42.597681    46.135090    46.641375    47.472463    51.053551    51.645096    54.809066 
    29     0.352482   16.744950    18.216344    26.632999    29.059201    30.094347    33.344037    34.105708    36.150894    36.895865    40.439933    41.117322    42.561057    46.073782    46.550820    47.529407    50.844979    51.723043    54.753610 
    30     0.365071   17.409916    18.829909    27.320518    28.981242    29.974645    33.336090    33.955680    36.045573    37.044951    40.599929    41.028689    42.541406    46.016206    46.449752    47.586128    50.631448    51.790041    54.683933 
    31     0.377660   18.073581    19.431844    27.946047    28.898498    29.877729    33.280088    33.819438    35.977421    37.207142    40.759690    40.923467    42.534724    45.958617    46.335963    47.644535    50.417694    51.846502    54.599912 
    32     0.390248   18.734246    20.021245    28.455047    28.812530    29.858748    33.179094    33.696772    35.943835    37.380379    40.807286    40.918533    42.537265    45.895313    46.207086    47.707839    50.208838    51.892970    54.501546 
    33     0.402837   19.389889    20.597244    28.725100    28.740808    30.023592    33.039529    33.588786    35.939260    37.562543    40.685202    41.075888    42.546142    45.819723    46.060727    47.779747    50.010160    51.930002    54.389009 
    34     0.415426   20.038206    21.158948    28.638016    28.781895    30.389965    32.869528    33.499408    35.956853    37.751464    40.561545    41.231161    42.559396    45.725572    45.894842    47.863570    49.826818    51.958134    54.262661 
    35     0.428014   20.676517    21.705402    28.553152    28.697849    30.829276    32.677210    33.437914    35.990092    37.944934    40.439883    41.383780    42.575736    45.607890    45.708054    47.961390    49.663425    51.977921    54.122973 
    36     0.440603   21.301748    22.235590    28.472429    28.569108    31.242687    32.469854    33.422950    36.033659    38.140724    40.323243    41.533102    42.594321    45.463702    45.500065    48.073716    49.523675    51.989848    53.970664 
    37     0.453192   21.910390    22.748235    28.397768    28.427126    31.568742    32.253595    33.484903    36.083610    38.336538    40.214165    41.678481    42.614530    45.271880    45.292138    48.199469    49.410072    51.994373    53.806613 
    38     0.465780   22.498427    23.241774    28.285739    28.331067    31.765660    32.033593    33.652412    36.137232    38.530083    40.114845    41.819123    42.635829    45.025903    45.094192    48.336380    49.323831    51.991930    53.631963 
    39     0.478369   23.061297    23.714113    28.152907    28.274197    31.814223    31.830898    33.921188    36.192738    38.719016    40.027179    41.954138    42.657650    44.765793    44.872342    48.481474    49.265003    51.982979    53.448088 
    40     0.490958   23.593878    24.162326    28.034668    28.229019    31.599279    31.797721    34.253777    36.248962    38.901068    39.952803    42.082457    42.679371    44.496199    44.630271    48.631415    49.232694    51.968040    53.256675 
    41     0.503546   24.090541    24.582320    27.936785    28.197255    31.392133    31.701537    34.611831    36.305125    39.073958    39.893069    42.202792    42.700249    44.222612    44.372702    48.782733    49.225280    51.947694    53.059783 
    42     0.516135   24.545263    24.968245    27.865708    28.180456    31.195922    31.565395    34.970146    36.360569    39.235504    39.849019    42.313556    42.719317    43.951208    44.105414    48.932017    49.240579    51.922737    52.859902 
    43     0.528724   24.952004    25.312265    27.828948    28.179662    31.013547    31.402845    35.313558    36.414575    39.383636    39.821260    42.412603    42.735212    43.688953    43.835522    49.075846    49.275801    51.894123    52.660096 
    44     0.541312   25.305260    25.604932    27.834452    28.194961    30.847761    31.222714    35.632212    36.466237    39.516418    39.809718    42.496761    42.745589    43.444229    43.572163    49.210873    49.327563    51.863128    52.464207 
    45     0.553901   25.600965    25.837705    27.887702    28.224766    30.701242    31.032318    35.918605    36.514317    39.632104    39.813325    42.560338    42.745490    43.228293    43.328344    49.333712    49.391524    51.831327    52.277022 
    46     0.566490   25.837345    26.007619    27.986229    28.265109    30.576555    30.839703    36.166045    36.557288    39.729155    39.829554    42.591965    42.722900    43.058539    43.125662    49.440943    49.462119    51.800617    52.104628 
    47     0.579078   26.015418    26.120441    28.115081    28.309556    30.476131    30.655704    36.368107    36.593379    39.806246    39.853954    42.575848    42.657600    42.957235    42.995433    49.529179    49.532192    51.773205    51.954674 
    48     0.591667   26.138381    26.188221    28.247368    28.349961    30.402252    30.496241    36.518532    36.620828    39.862298    39.880064    42.521520    42.560251    42.921355    42.939407    49.592992    49.595199    51.751360    51.836348 
    49     0.604256   26.210277    26.223382    28.349192    28.378303    30.356825    30.383469    36.611827    36.638074    39.896442    39.900322    42.470093    42.480247    42.915590    42.920425    49.635071    49.636273    51.737176    51.759468 
    50     0.616844   26.234354    26.234354    28.388705    28.388705    30.341191    30.341204    36.644087    36.644087    39.908133    39.908133    42.449847    42.449847    42.915838    42.915838    49.650481    49.650494    51.732155    51.732155 
    51     0.616844   26.234354    26.234366    28.388717    28.388717    30.341204    30.341204    36.644087    36.644087    39.908133    39.908133    42.449835    42.449847    42.915838    42.915838    49.650481    49.650481    51.732143    51.732168 
    52     0.634610   26.212583    26.233796    28.345721    28.374658    30.350453    30.388378    36.616290    36.645450    39.869774    39.893503    42.394477    42.491182    42.900539    42.958475    49.590413    49.599154    51.785566    51.829926 
    53     0.652376   26.149081    26.225527    28.237697    28.338605    30.375906    30.512147    36.536199    36.649901    39.761725    39.851561    42.261038    42.550754    42.914388    43.049179    49.430392    49.483270    51.926531    52.082101 
    54     0.670142   26.044999    26.190279    28.102299    28.296749    30.413149    30.682744    36.407954    36.658555    39.594327    39.784500    42.078849    42.472684    43.105875    43.146615    49.201463    49.366803    52.123448    52.425997 
    55     0.687908   25.902199    26.101038    27.969876    28.278288    30.456555    30.874070    36.237643    36.672379    39.378044    39.694342    41.857731    42.278680    43.225329    43.448766    48.930616    49.297622    52.348671    52.813472 
    56     0.705674   25.722527    25.937298    27.848636    28.319648    30.500754    31.068855    36.032357    36.691298    39.120203    39.582351    41.603857    42.024124    43.276794    43.877068    48.637689    49.300845    52.583327    53.214224 
    57     0.723440   25.505476    25.701178    27.733334    28.442896    30.541357    31.256685    35.799337    36.712970    38.825292    39.449271    41.326328    41.731023    43.294783    44.361408    48.339752    49.384148    52.815108    53.608902 
    58     0.741205   25.240977    25.421628    27.621442    28.643868    30.575600    31.431298    35.545165    36.731356    38.497501    39.296540    41.037665    41.413387    43.280228    44.872329    48.057971    49.543226    53.035768    53.984401 
    59     0.758971   24.911190    25.140429    27.514398    28.903309    30.603223    31.588616    35.275248    36.734381    38.144666    39.128237    40.751160    41.083401    43.237616    45.365038    47.830021    49.766923    53.239616    54.331321 
    60     0.776737   24.526269    24.869409    27.413478    29.195554    30.629085    31.725651    34.993405    36.699977    37.783054    38.953785    40.475738    40.754941    43.172911    45.754571    47.734135    50.041378    53.422672    54.642772 
    61     0.794503   24.111494    24.602008    27.317927    29.483659    30.670569    31.839750    34.701965    36.592424    37.441786    38.789387    40.207371    40.451004    43.092237    45.921758    47.882911    50.352828    53.582321    54.913643 
    62     0.812269   23.684556    24.336679    27.224371    29.704988    30.771080    31.928582    34.402268    36.376736    37.152144    38.652823    39.929767    40.205363    43.001298    45.853842    48.282474    50.688925    53.716963    55.140179 
    63     0.830035   23.258127    24.075118    27.126440    29.785402    30.984077    31.990535    34.096013    36.065125    36.909602    38.547192    39.655387    40.028592    42.905287    45.657197    48.819357    51.039194    53.825967    55.319752 
    64     0.847801   22.842571    23.819905    27.014461    29.710208    31.300784    32.025671    33.787749    35.709042    36.686947    38.443619    39.436154    39.907811    42.809042    45.410415    49.407605    51.394868    53.909504    55.450724 
    65     0.865567   22.446901    23.573867    26.875256    29.507798    31.665075    32.037163    33.488002    35.346686    36.478809    38.293727    39.327113    39.834873    42.717235    45.148296    50.004915    51.748644    53.968531    55.532266 
    66     0.883333   22.079053    23.339892    26.692596    29.194798    32.003714    32.053145    33.218023    34.995549    36.296782    38.087598    39.336734    39.807697    42.634552    44.886104    50.588861    52.094301    54.004733    55.564327 
    67     0.901098   21.745918    23.120857    26.448728    28.776427    32.011934    32.320396    33.028024    34.663692    36.153820    37.862041    39.425962    39.827186    42.565942    44.631808    51.145321    52.426319    54.020578    55.547528 
    68     0.918864   21.453338    22.919550    26.127322    28.257174    32.001680    32.405173    33.029363    34.360078    36.059633    37.653953    39.555435    39.895251    42.516933    44.391076    51.664065    52.739443    54.019512    55.483220 
    69     0.936630   21.206110    22.738478    25.716861    27.645259    31.997639    32.316280    33.156009    34.105981    36.023604    37.485936    39.700206    40.011247    42.494046    44.169425    52.136764    53.027796    54.006655    55.373435 
    70     0.954396   21.007989    22.579597    25.213143    26.952669    31.966904    32.241284    33.189458    33.942067    36.057922    37.368998    39.850148    40.165032    42.505489    43.973090    52.555829    53.283071    53.990600    55.221213 
    71     0.972162   20.861656    22.443603    24.619539    26.193565    31.860542    32.263328    33.071243    33.866364    36.173347    37.304739    40.005966    40.336087    42.561466    43.809002    52.912544    53.490068    53.988492    55.031201 
    72     0.989928   20.768758    22.327695    23.946973    25.382847    31.712162    32.300782    32.914347    33.800308    36.368653    37.286911    40.170499    40.501129    42.673755    43.683981    53.192776    53.624412    54.030025    54.811930 
    73     1.007694   20.729878    22.214067    23.222880    24.534973    31.548459    32.173343    32.910665    33.709108    36.628391    37.304541    40.345051    40.640446    42.852819    43.603134    53.369782    53.686650    54.122676    54.583274 
    74     1.025460   20.744321    21.973199    22.586664    23.663009    31.375991    31.838919    33.090584    33.609627    36.932216    37.345652    40.530066    40.742506    43.103048    43.568382    53.427929    53.681604    54.226248    54.398853 
    75     1.043225   20.809374    21.288159    22.365199    22.778263    31.197162    31.374962    33.356757    33.530366    37.262425    37.400377    40.725769    40.806455    43.419730    43.577495    53.410634    53.524906    54.308819    54.335239 
    76     1.060991   20.388065    20.914199    21.895909    22.339696    30.805596    31.014341    33.493147    33.669199    37.462392    37.605279    40.839706    40.932307    43.624644    43.790976    53.223126    53.363422    54.348505    54.367065 
    77     1.078757   19.420872    20.844881    21.230137    22.372799    30.137926    30.830565    33.509674    34.012152    37.528907    37.949435    40.853109    41.149817    43.701847    44.201932    52.845024    53.305288    54.344885    54.412752 
    78     1.096523   18.418295    20.025770    21.353683    22.443405    29.378164    30.649555    33.584285    34.376108    37.599911    38.284317    40.857225    41.378722    43.800597    44.637772    52.423046    53.242740    54.299781    54.438391 
