# k-axis, Phonon energy [meV], band-1, band-2, band-3, band-4, band-5, band-6, band-7
     1     0.000000  -26.631202   -17.164634   -10.640314     0.000000     0.000000     0.000000    12.612857    12.620594    16.584519    18.410373    22.054158    24.165053    25.950341    32.668234    33.320332    34.973010    35.604167    36.671833    37.794993    38.338831    39.055795    39.656131    41.494395    43.093179    43.866021    44.305344    44.846789    45.230756    46.938394    48.157427    48.725640    49.919964    50.521366    50.656802    50.949321   102.663697 
     2     0.008888  -26.589172   -17.152546   -10.615227    -0.352941     0.205384     0.736963    12.609336    12.626929    16.587383    18.405513    22.047525    24.156747    25.943596    32.663932    33.302429    34.953260    35.628207    36.660948    37.807738    38.343208    39.061957    39.662343    41.492436    43.083955    43.863764    44.306931    44.849418    45.229603    46.945796    48.155419    48.731616    49.920510    50.514027    50.656331    50.974241   102.618668 
     3     0.017775  -26.463047   -17.116059   -10.539630    -0.702106     0.417587     1.474019    12.597335    12.647497    16.595950    18.391640    22.027613    24.132794    25.923573    32.651212    33.249837    34.900010    35.692565    36.630027    37.844337    38.356139    39.079823    39.680853    41.486696    43.056593    43.857119    44.312188    44.856931    45.226255    46.967579    48.149827    48.748155    49.921960    50.494041    50.662220    51.040359   102.483691 
     4     0.026663  -26.252753   -17.054614   -10.412496    -1.043610     0.642957     2.211242    12.577808    12.681741    16.610221    18.370823    21.994474    24.095835    25.890843    32.630532    33.165431    34.824036    35.781236    36.583969    37.900612    38.376980    39.107706    39.711302    41.477521    43.012059    43.846531    44.322466    44.868337    45.221023    47.002467    48.141632    48.771575    49.923597    50.467063    50.684772    51.133691   102.259088 
     5     0.035551  -25.958102   -16.967209   -10.232053    -1.373349     0.886986     2.948655    12.552219    12.728816    16.630169    18.346250    21.948378    24.049876    25.846284    32.602673    33.052969    34.732910    35.877655    36.530781    37.971169    38.404875    39.143139    39.752960    41.465495    42.951966    43.832893    44.339191    44.882310    45.214403    47.048389    48.131937    48.797524    49.923870    50.438151    50.730769    51.245001   101.945419 
     6     0.044438  -25.578897   -16.852465    -9.995666    -1.686887     1.154054     3.686207    12.522426    12.787818    16.655758    18.322037    21.890070    23.999540    25.791039    32.568616    32.916194    34.630788    35.962395    36.484140    38.050342    38.438920    39.183519    39.804498    41.451374    42.878557    43.817669    44.363317    44.897435    45.206976    47.102544    48.121659    48.822555    49.920683    50.409016    50.805727    51.369067   101.543451 
     7     0.053326  -25.114827   -16.708561    -9.699646    -1.979327     1.447315     4.423735    12.490824    12.857631    16.686915    18.302808    21.821100    23.949403    25.726458    32.529550    32.758343    34.520074    36.007387    36.467837    38.132442    38.478346    39.226664    39.863971    41.436050    42.794511    43.802853    44.394895    44.912449    45.199401    47.161384    48.111530    48.845231    49.912253    50.379261    50.912920    51.502718   101.054176 
     8     0.062213  -24.565521   -16.533291    -9.338913    -2.245208     1.768700     5.160920    12.460238    12.937003    16.723538    18.293348    21.744009    23.903307    25.654078    32.486727    32.582043    34.402466    35.988803    36.502142    38.211764    38.522520    39.271235    39.928949    41.420354    42.702828    43.790802    44.433205    44.926285    45.192359    47.220746    48.102232    48.866333    49.897834    50.348129    51.051778    51.643869   100.478810 
     9     0.071101  -23.930545   -16.324025    -8.906434    -2.478386     2.119005     5.897217    12.433917    13.024570    16.765567    18.298134    21.662443    23.863956    25.575648    32.389391    32.441636    34.279391    35.915940    36.574769    38.282867    38.570587    39.316922    39.996903    41.404820    42.606756    43.783847    44.477007    44.938076    45.186457    47.275930    48.094656    48.888141    49.877662    50.315299    51.218060    51.791182    99.818790 
    10     0.079989  -23.209378   -16.077739    -8.392252    -2.671908     2.498032     6.631766    12.415370    13.118968    16.812928    18.321008    21.581000    23.832675    25.493251    32.182270    32.395602    34.152064    35.810768    36.661159    38.341670    38.620464    39.364220    40.065836    41.389421    42.509804    43.784045    44.524789    44.947238    45.182143    47.321951    48.089970    48.913457    49.852569    50.280982    51.405108    51.944025    99.075778 
    11     0.088876  -22.401388   -15.791097    -7.781706    -2.817793     2.904752     7.363254    12.408266    13.218921    16.865718    18.364798    21.505062    23.809491    25.409317    31.962205    32.350263    34.021513    35.686019    36.746370    38.386650    38.667899    39.414221    40.134669    41.373105    42.415963    43.792910    44.575013    44.953524    45.179564    47.354211    48.089449    48.944564    49.823458    50.245871    51.604865    52.102558    98.251658 
    12     0.097764  -21.505819   -15.460405    -7.051950    -2.906500     3.337494     8.089694    12.416423    13.323387    16.924187    18.430966    21.440531    23.793225    25.326833    31.730722    32.307217    33.888631    35.547496    36.822668    38.418947    38.706829    39.468178    40.203354    41.353579    42.329760    43.811309    44.626341    44.957082    45.178448    47.369361    48.093999    48.982490    49.791273    50.211131    51.808490    52.267947    97.348550 
    13     0.106652  -20.521752   -15.081696    -6.164315    -2.925287     3.794146     8.808030    12.443984    13.431683    16.988793    18.519475    21.393604    23.781695    25.249345    31.489358    32.268138    33.754150    35.398075    36.885488    38.441350    38.731104    39.527142    40.272461    41.327506    42.256227    43.839440    44.677606    44.958520    45.178101    47.366088    48.103608    49.026502    49.756807    50.178388    52.006895    52.442052    96.368799 
    14     0.115539  -19.447999   -14.650741    -5.045238    -2.850714     4.272402     9.513399    12.495932    13.543600    17.060268    18.628603    21.370718    23.771814    25.181107    31.239662    32.234775    33.618752    35.239468    36.931708    38.457282    38.736212    39.591587    40.342348    41.291514    42.200213    43.876894    44.727992    44.958694    45.177531    47.345321    48.117246    49.074024    49.720877    50.149798    52.192158    52.626237    95.314993 
    15     0.124427  -18.282921   -14.162942    -3.565449    -2.552183     4.770169    10.197579    12.579532    13.659608    17.139466    18.755000    21.378318    23.759899    25.126853    30.983271    32.208851    33.483167    35.072938    36.959058    38.470139    38.720082    39.661004    40.412298    41.244166    42.165040    43.922742    44.776828    44.958694    45.175634    47.309528    48.133264    49.120802    49.684303    50.128052    52.359581    52.819224    94.189974 
    16     0.133315  -17.024066   -13.613289    -2.615897     1.826586     5.286609    10.845645    12.707491    13.781121    17.227393    18.894068    21.422566    23.742207    25.091395    30.721872    32.191965    33.348401    34.899639    36.966063    38.482772    38.683062    39.734028    40.479520    41.188115    42.151390    43.975694    44.823543    44.959686    45.171406    47.261907    48.149939    49.161529    49.647977    50.116274    52.508394    53.016526    92.996790 
    17     0.142202  -15.667526   -12.996042    -2.114520     4.234355     5.826250    11.430042    12.903479    13.910990    17.325077    19.040563    21.508683    23.715750    25.078724    30.457274    32.185208    33.216089    34.720773    36.952264    38.496856    38.627556    39.808453    40.538063    41.131580    42.157329    44.034212    44.867197    44.963194    45.164166    47.205645    48.165808    49.190764    49.612841    50.117464    52.640024    53.212055    91.738790 
    18     0.151090  -14.206732   -12.304200    -1.301364     5.722624     6.426480    11.910074    13.201254    14.055228    17.433584    19.189699    21.639730    23.679325    25.091023    30.191399    32.188283    33.089369    34.537753    36.918256    38.509242    38.560384    39.881304    40.577910    41.088869    42.179533    44.096611    44.905085    44.971935    45.154000    47.143680    48.179657    49.204327    49.579838    50.133582    52.756193    53.400145    90.419544 
    19     0.159977  -12.630562   -11.527845     1.301960     6.670858     7.278537    12.265064    13.605330    14.229482    17.553894    19.338376    21.815099    23.634221    25.128043    29.926292    32.197680    32.974477    34.352416    36.865614    38.461286    38.542816    39.948439    40.588771    41.076359    42.214483    44.161192    44.931096    44.990705    45.142569    47.078640    48.190480    49.200570    49.549636    50.164602    52.858092    53.576296    89.042920 
    20     0.168865  -10.936846   -10.633275     2.393134     7.283893     8.299541    12.527968    14.029936    14.486840    17.686875    19.486098    22.029089    23.584567    25.187120    29.664236    32.203049    32.883885    34.167450    36.796706    38.367880    38.561214    40.003709    40.573348    41.099854    42.259178    44.226208    44.942019    45.017807    45.135229    47.012856    48.197337    49.180572    49.522633    50.208491    52.946452    53.737197    87.613071 
    21     0.177753   -9.709867    -8.967762     3.227002     7.835860     9.259841    12.745590    14.343940    14.913145    17.833209    19.635122    22.269449    23.537901    25.263826    29.407672    32.184588    32.837529    33.987394    36.714346    38.264840    38.579613    40.038622    40.552432    41.150090    42.311225    44.290008    44.938981    45.041748    45.142891    46.948424    48.199432    49.147209    49.499052    50.261963    53.021659    53.880580    86.134448 
    22     0.186640   -8.590256    -6.735812     3.973823     8.370833    10.132165    12.945793    14.585615    15.445180    17.993143    19.789886    22.514557    23.508269    25.352484    29.159352    32.123590    32.849009    33.821496    36.621584    38.156072    38.592594    40.045986    40.549184    41.214994    42.368752    44.350981    44.918847    45.059973    45.171890    46.887166    48.196047    49.103730    49.479178    50.321659    53.084008    54.004981    84.611812 
    23     0.195528   -7.293117    -3.691170     4.696015     8.895835    10.913697    13.141124    14.826929    16.002198    18.166343    19.956131    22.726613    23.523978    25.446721    28.922278    32.020873    32.898180    33.691887    36.521607    38.043685    38.595433    40.029088    40.573112    41.286853    42.430320    44.407528    44.881082    45.080827    45.215060    46.830730    48.186699    49.052947    49.463284    50.384803    53.133774    54.109620    83.050272 
    24     0.204416   -5.709782     3.640358     5.517037     9.413046    11.601695    13.336491    15.091143    16.559029    18.351569    20.140179    22.854200    23.626224    25.539843    28.699795    31.889751    32.923013    33.647812    36.417761    37.929214    38.583320    40.002742    40.619295    41.361588    42.494777    44.457678    44.830139    45.108090    45.265284    46.780481    48.171164    48.996983    49.451568    50.449495    53.171365    54.194324    81.455306 
    25     0.213303   -3.500739     5.424861     6.829732     9.924517    12.195273    13.533235    15.383513    17.108347    18.546590    20.347994    22.884005    23.818628    25.625377    28.495390    31.741298    32.862498    33.736396    36.313829    37.813726    38.552213    39.983339    40.679313    41.437253    42.561231    44.497972    44.772240    45.141614    45.319042    46.737559    48.149629    48.937311    49.443968    50.514709    53.197314    54.259438    79.832755 
    26     0.222191    2.756455     6.182273     8.205595    10.433011    12.699383    13.731157    15.699178    17.648094    18.748628    20.584077    22.852837    24.055827    25.697806    28.312606    31.581872    32.730522    33.930189    36.214471    37.697942    38.500067    39.982422    40.747378    41.512967    42.628948    44.519532    44.718173    45.180792    45.374114    46.702857    48.122663    48.874949    49.440013    50.580170    53.212328    54.305744    78.188917 
    27     0.231079    5.165805     6.781799     9.284793    10.940499    13.125911    13.929785    16.025903    18.177266    18.955724    20.850027    22.790326    24.301109    25.753374    28.154631    31.415044    32.565343    34.174827    36.126123    37.582181    38.427688    40.006139    40.820514    41.588446    42.697423    44.502894    44.688827    45.225176    45.428504    46.677019    48.091259    48.810566    49.438885    50.646239    53.217312    54.334384    76.530536 
    28     0.239966    6.684361     7.333127    10.126326    11.443637    13.490400    14.129331    16.348610    18.691188    19.170916    21.143128    22.708536    24.536535    25.790927    28.023844    31.243010    32.386750    34.429382    36.058430    37.466434    38.338497    40.056797    40.897518    41.663739    42.766232    44.442528    44.690934    45.274372    45.480240    46.660530    48.056694    48.744584    49.439356    50.713796    53.213319    54.346844    74.864852 
    29     0.248854    7.755517     7.929085    10.803591    11.929778    13.807603    14.330898    16.654196    19.158778    19.425174    21.455917    22.611485    24.753115    25.812624    27.921201    31.067318    32.203136    34.658076    36.025761    37.350450    38.237378    40.134644    40.978130    41.739119    42.835127    44.358693    44.705390    45.327906    45.527564    46.653649    48.020529    48.677276    49.439963    50.784117    53.201579    54.344810    73.199615 
    30     0.257741    8.302090     8.785977    11.377335    12.381192    14.088839    14.535824    16.933895    19.476787    19.822567    21.776145    22.501366    24.944652    25.824600    27.845834    30.889195    32.018504    34.826912    36.044581    37.233785    38.129367    40.239098    41.062536    41.815020    42.903924    44.264455    44.720231    45.384863    45.569097    46.656414    47.984376    48.608851    49.439120    50.858617    53.183440    54.330168    71.543192 
    31     0.266629    8.769386     9.519917    11.891139    12.784446    14.342155    14.744507    17.183244    19.702728    20.306486    22.079722    22.389871    25.104301    25.837568    27.794927    30.709858    31.835064    34.916673    36.119379    37.116066    38.018554    40.369091    41.151107    41.891962    42.972472    44.165048    44.731290    45.443493    45.604530    46.668700    47.949885    48.539509    49.435302    50.938733    53.160318    54.304877    69.904486 
    32     0.275517    9.210333    10.114944    12.369972    13.134602    14.573142    14.955546    17.400990    19.912316    20.801042    22.176836    22.455208    25.223446    25.865972    27.763945    30.530633    31.654264    34.936535    36.229646    36.997182    37.907480    40.522466    41.244104    41.970615    43.040698    44.063124    44.736956    45.500139    45.635600    46.690174    47.918568    48.469497    49.427206    51.025643    53.133613    54.270980    68.293081 
    33     0.284404    9.628650    10.596196    12.823301    13.434051    14.785012    15.166151    17.587952    20.117726    21.291284    22.041908    22.714549    25.297127    25.921416    27.747133    30.353267    31.477121    34.911479    36.343572    36.877615    37.796630    40.695133    41.341627    42.051797    43.108491    43.960419    44.736559    45.547425    45.667959    46.720524    47.891738    48.399176    49.413915    51.120054    53.104701    54.230464    66.719118 
    34     0.293292   10.025464    10.987816    13.249433    13.691111    14.978036    15.373446    17.746212    20.317594    21.762594    21.892674    22.956062    25.333602    26.002115    27.737934    30.180141    31.304429    34.862705    36.438007    36.758867    37.684366    40.880434    41.443588    42.136351    43.175762    43.858260    44.729777    45.575990    45.709132    46.759553    47.870426    48.329065    49.394959    51.222064    53.074809    54.185273    65.193308 
    35     0.302180   10.401326    11.310875    13.635048    13.923611    15.149996    15.575124    17.878573    20.502039    21.717961    22.249872    23.157567    25.351864    26.094641    27.729602    30.014467    31.136784    34.802959    36.500258    36.645698    37.567353    41.069292    41.549913    42.225059    43.242414    43.757774    44.716474    45.585028    45.757956    46.807508    47.855350    48.259884    49.370336    51.331080    53.044955    54.137280    63.726848 
    36     0.311067   10.756566    11.582334    13.939257    14.176629    15.297607    15.769227    17.988122    20.646117    21.592431    22.703106    23.313695    25.369742    26.184787    27.715630    29.860323    30.974667    34.739159    36.494220    36.575637    37.441526    41.251258    41.660826    42.318217    43.308297    43.660028    44.696600    45.580900    45.805626    46.865048    47.846907    48.192601    49.340420    51.445885    53.015906    54.088234    62.331181 
    37     0.319955   11.091405    11.815083    14.137030    14.479376    15.417992    15.953449    18.077933    20.701920    21.547203    23.129758    23.431972    25.398270    26.262026    27.690363    29.722370    30.818527    34.674875    36.400602    36.574088    37.303214    41.416399    41.776623    42.415083    43.373126    43.566312    44.670155    45.568775    45.844370    46.933026    47.845159    48.128379    49.305829    51.564633    52.988110    54.039733    61.017749 
    38     0.328842   11.405979    12.018655    14.278702    14.785433    15.509402    16.124888    18.151106    20.638988    21.615876    23.412061    23.630129    25.441403    26.318921    27.649821    29.605085    30.668908    34.612055    36.301381    36.566376    37.149938    41.558220    41.896636    42.513139    43.433690    43.480976    44.637189    45.551938    45.868695    47.011803    47.849821    48.068745    49.267346    51.685092    52.961665    53.993240    59.797637 
    39     0.337730   11.700355    12.200073    14.392417    15.070067    15.571057    16.280000    18.210864    20.495469    21.762730    23.462731    24.000073    25.497764    26.350424    27.592530    29.511666    30.526591    34.551887    36.210020    36.545721    36.980916    41.675889    42.017863    42.607649    43.391289    43.504297    44.597825    45.532634    45.875352    47.100424    47.859813    48.015966    49.225751    51.804683    52.936249    53.950046    58.680986 
    40     0.346618   11.974495    12.364568    14.487051    15.327300    15.602982    16.414816    18.260878    20.319132    21.942315    23.460959    24.368864    25.563312    26.353784    27.519816    29.443180    30.392581    34.495551    36.129136    36.514664    36.797041    41.773238    42.135954    42.691620    43.318736    43.565878    44.552337    45.512587    45.863537    47.195925    47.870711    47.975772    49.181738    51.920704    52.911106    53.911215    57.676513 
